# Wavelength(nm) n k
188 1.3331 0.2173
192 1.3383 0.2082
195 1.3472 0.2037
199 1.3581 0.1994
203 1.3687 0.1917
207 1.3768 0.1824
212 1.3815 0.1709
216 1.3853 0.1623
221 1.3872 0.1514
226 1.3868 0.1416
231 1.3848 0.1331
237 1.3815 0.1241
243 1.3781 0.1167
249 1.3741 0.1111
255 1.3695 0.1058
262 1.3650 0.1032
269 1.3614 0.0999
276 1.3578 0.0985
284 1.3554 0.0986
292 1.3538 0.0996
301 1.3530 0.1009
311 1.3533 0.1015
320 1.3571 0.1058
332 1.3630 0.1098
342 1.3684 0.1112
354 1.3740 0.1100
368 1.3803 0.1071
381 1.3825 0.1013
397 1.3857 0.0960
413 1.3903 0.0897
431 1.3926 0.0823
451 1.3936 0.0754
471 1.3929 0.0684
496 1.3925 0.0615
521 1.3922 0.0553
549 1.3905 0.0492
582 1.3895 0.0440
617 1.3887 0.0389
659 1.3882 0.0340
704 1.3863 0.0301
756 1.3846 0.0269
821 1.3823 0.0243
892 1.3802 0.0218
984 1.3788 0.0191
1088 1.3769 0.0167
1216 1.3752 0.0139
1393 1.3735 0.0113
1610 1.3718 0.0086
1937 1.3699 0.0065
